Wavelength,Abs,PL
188.288,-0.27,
188.764,-0.27,
189.24,-0.27,
189.717,-0.26,
190.193,-0.19,
190.669,-0.19,
191.145,-0.08,
191.622,-0.19,
192.098,-0.39,
192.574,-0.68,
193.05,-1.22,
193.526,-0.51,
194.002,-0.19,
194.479,-0.08,
194.955,-0.08,
195.431,-0.38,
195.907,-0.52,
196.383,-0.19,
196.859,-1.06,
197.335,-0.19,
197.811,-0.33,
198.287,-0.1,
198.763,-0.19,
199.239,-0.46,
199.715,-0.19,
200.191,0.23,
200.667,0.8,
201.143,0.61,
201.619,0.5,
202.094,0.67,
202.57,0.72,
203.046,0.28,
203.522,0.68,
203.998,-0.19,
204.474,0.93,
204.949,0.68,
205.425,0.7,
205.901,0.81,
206.377,0.83,
206.852,0.64,
207.328,0.65,
207.804,0.66,
208.279,0.44,
208.755,-0.19,
209.231,0.42,
209.706,0.86,
210.182,0.79,
210.657,0.46,
211.133,0.85,
211.608,1.27,
212.084,1.24,
212.559,0.39,
213.035,0.68,
213.51,1.18,
213.986,0.91,
214.461,0.61,
214.937,-0.19,
215.412,0.77,
215.888,0.6,
216.363,0.4,
216.838,0.59,
217.314,0.69,
217.789,0.75,
218.264,1.1,
218.74,0.36,
219.215,0.52,
219.69,-0.19,
220.165,0.61,
220.641,-0.19,
221.116,0.92,
221.591,0.85,
222.066,0.78,
222.541,0.51,
223.016,0.62,
223.492,0.8,
223.967,0.43,
224.442,0.78,
224.917,0.82,
225.392,0.92,
225.867,0.44,
226.342,0.74,
226.817,-0.19,
227.292,0.33,
227.767,0.39,
228.242,0.82,
228.717,0.45,
229.192,1.89,
229.667,0.49,
230.142,0.81,
230.617,0.61,
231.091,1.47,
231.566,0.51,
232.041,0.67,
232.516,0.32,
232.991,1.11,
233.465,1.06,
233.94,0.25,
234.415,0.33,
234.89,-0.19,
235.364,0.25,
235.839,-0.19,
236.314,0.72,
236.788,0.32,
237.263,0.46,
237.738,0.39,
238.212,0.34,
238.687,0.26,
239.161,0.41,
239.636,0.4,
240.11,0.49,
240.585,-0.19,
241.059,0.51,
241.534,0.28,
242.008,0.46,
242.483,0.45,
242.957,0.66,
243.432,0.87,
243.906,0.56,
244.38,0.6,
244.855,0.41,
245.329,0.35,
245.804,0.34,
246.278,0.66,
246.752,0.69,
247.226,0.47,
247.701,0.59,
248.175,0.37,
248.649,0.39,
249.123,0.79,
249.598,0.53,
250.072,0.54,
250.546,0.48,
251.02,0.62,
251.494,0.53,
251.968,0.61,
252.442,0.34,
252.916,0.51,
253.39,0.33,
253.864,0.25,
254.338,0.41,
254.812,0.5,
255.286,0.52,
255.76,0.3,
256.234,0.51,
256.708,0.51,
257.182,0.41,
257.656,0.51,
258.13,0.46,
258.604,0.55,
259.078,0.34,
259.551,0.56,
260.025,0.53,
260.499,0.41,
260.973,0.54,
261.447,0.5,
261.92,0.44,
262.394,0.5,
262.868,0.7,
263.341,0.5,
263.815,0.48,
264.289,0.38,
264.762,0.5,
265.236,0.41,
265.709,0.52,
266.183,0.83,
266.657,0.65,
267.13,0.57,
267.604,0.5,
268.077,0.46,
268.551,0.86,
269.024,0.69,
269.498,0.5,
269.971,0.41,
270.444,0.54,
270.918,0.91,
271.391,0.83,
271.864,0.7,
272.338,0.74,
272.811,0.58,
273.284,0.69,
273.758,0.53,
274.231,0.4,
274.704,0.68,
275.177,0.63,
275.651,0.51,
276.124,0.69,
276.597,0.42,
277.07,0.47,
277.543,0.88,
278.016,0.54,
278.49,0.7,
278.963,0.52,
279.436,0.44,
279.909,0.51,
280.382,0.53,
280.855,0.7,
281.328,1.24,
281.801,0.48,
282.274,0.6,
282.747,0.93,
283.22,0.93,
283.693,0.98,
284.165,0.65,
284.638,0.5,
285.111,0.47,
285.584,0.73,
286.057,0.69,
286.53,0.57,
287.002,0.89,
287.475,0.58,
287.948,0.62,
288.421,0.6,
288.893,0.59,
289.366,0.55,
289.839,1.62,
290.311,0.65,
290.784,1.4,
291.256,1.78,
291.729,0.84,
292.202,0.78,
292.674,-0.19,
293.147,0.92,
293.619,0.82,
294.092,1.46,
294.564,0.91,
295.037,1,
295.509,1.58,
295.982,1,
296.454,0.97,
296.926,1.23,
297.399,1.31,
297.871,1.14,
298.343,1.66,
298.816,1.17,
299.288,1.15,
299.76,1.57,
300.233,1.24,
300.705,1.56,
301.177,1.48,
301.649,1.64,
302.121,1.62,
302.594,2.18,
303.066,2.04,
303.538,1.9,
304.01,1.78,
304.482,1.56,
304.954,1.61,
305.426,2.65,
305.898,1.7,
306.37,1.78,
306.842,2.37,
307.314,1.72,
307.786,1.86,
308.258,1.89,
308.73,1.87,
309.202,1.91,
309.674,1.87,
310.146,1.79,
310.617,2.05,
311.089,2.21,
311.561,2.02,
312.033,1.96,
312.505,2.44,
312.976,2,
313.448,2.28,
313.92,2.22,
314.391,2.92,
314.863,2.71,
315.335,2.45,
315.806,2.32,
316.278,2.54,
316.75,2.37,
317.221,2.76,
317.693,2.37,
318.164,2.43,
318.636,2.27,
319.107,2.48,
319.579,3.99,
320.05,2.82,
320.522,2.41,
320.993,2.23,
321.465,2.43,
321.936,2.31,
322.407,2.76,
322.879,2.64,
323.35,2.52,
323.821,2.47,
324.293,2.78,
324.764,2.83,
325.235,2.53,
325.706,2.57,
326.178,2.77,
326.649,2.6,
327.12,2.51,
327.591,2.53,
328.062,2.5,
328.533,2.7,
329.004,2.57,
329.475,3.1,
329.947,2.57,
330.418,2.6,
330.889,2.68,
331.36,2.79,
331.831,2.69,
332.301,2.94,
332.772,2.85,
333.243,2.59,
333.714,2.68,
334.185,2.5,
334.656,2.62,
335.127,2.51,
335.598,2.57,
336.068,2.62,
336.539,2.65,
337.01,2.85,
337.481,2.53,
337.951,2.52,
338.422,2.59,
338.893,2.93,
339.363,2.57,
339.834,2.61,
340.305,2.83,
340.775,2.9,
341.246,2.75,
341.717,2.57,
342.187,2.91,
342.658,2.88,
343.128,2.79,
343.599,2.6,
344.069,2.55,
344.539,2.84,
345.01,2.38,
345.48,2.64,
345.951,2.66,
346.421,2.79,
346.891,2.57,
347.362,2.6,
347.832,2.59,
348.302,2.59,
348.773,2.96,
349.243,2.53,
349.713,2.62,
350.183,2.83,
350.653,2.62,
351.124,2.52,
351.594,2.88,
352.064,2.78,
352.534,2.5,
353.004,2.65,
353.474,2.76,
353.944,2.72,
354.414,2.6,
354.884,2.57,
355.354,2.68,
355.824,2.82,
356.294,2.62,
356.764,2.59,
357.234,2.78,
357.704,2.62,
358.174,2.79,
358.644,2.61,
359.113,2.52,
359.583,2.64,
360.053,2.67,
360.523,2.62,
360.993,2.63,
361.462,2.75,
361.932,2.5,
362.402,2.7,
362.871,2.78,
363.341,2.76,
363.811,2.52,
364.28,2.7,
364.75,2.52,
365.219,2.67,
365.689,2.83,
366.158,2.75,
366.628,2.61,
367.097,2.68,
367.567,2.57,
368.036,2.91,
368.506,3.68,
368.975,2.76,
369.445,2.67,
369.914,2.76,
370.383,2.77,
370.853,2.75,
371.322,2.9,
371.791,2.8,
372.26,2.69,
372.73,2.85,
373.199,2.66,
373.668,2.63,
374.137,2.64,
374.606,2.72,
375.075,2.57,
375.545,2.6,
376.014,2.88,
376.483,2.89,
376.952,2.75,
377.421,2.73,
377.89,2.54,
378.359,2.66,
378.828,2.73,
379.297,2.97,
379.766,2.91,
380.235,2.94,
380.703,2.72,
381.172,2.76,
381.641,2.73,
382.11,2.68,
382.579,2.7,
383.048,2.84,
383.516,2.8,
383.985,2.59,
384.454,2.68,
384.922,2.65,
385.391,2.68,
385.86,2.87,
386.328,2.74,
386.797,2.52,
387.266,2.83,
387.734,2.93,
388.203,2.74,
388.671,3.17,
389.14,2.89,
389.608,2.98,
390.077,2.69,
390.545,2.87,
391.014,2.56,
391.482,2.71,
391.95,2.8,
392.419,2.65,
392.887,2.81,
393.355,2.95,
393.824,2.74,
394.292,2.6,
394.76,2.57,
395.229,2.63,
395.697,2.64,
396.165,2.78,
396.633,2.67,
397.101,2.56,
397.569,2.78,
398.038,2.76,
398.506,2.56,
398.974,2.84,
399.442,2.64,
399.91,2.55,
400.378,3.03,
400.846,2.69,
401.314,2.7,
401.782,2.89,
402.25,2.73,
402.717,2.74,
403.185,2.89,
403.653,2.84,
404.121,2.75,
404.589,2.9,
405.057,2.74,
405.524,2.7,
405.992,2.85,
406.46,2.68,
406.928,2.65,
407.395,2.89,
407.863,2.76,
408.331,2.62,
408.798,2.88,
409.266,2.61,
409.733,2.67,
410.201,3.06,
410.668,2.75,
411.136,2.6,
411.603,3,
412.071,2.61,
412.538,2.66,
413.006,2.79,
413.473,2.73,
413.941,2.62,
414.408,3.08,
414.875,2.75,
415.343,2.53,
415.81,2.92,
416.277,2.66,
416.744,2.77,
417.212,3.38,
417.679,2.56,
418.146,2.61,
418.613,2.72,
419.08,2.56,
419.548,2.93,
420.015,2.81,
420.482,2.95,
420.949,2.42,
421.416,2.8,
421.883,2.66,
422.35,2.78,
422.817,2.65,
423.284,2.63,
423.751,2.47,
424.218,2.66,
424.684,2.73,
425.151,2.7,
425.618,2.77,
426.085,2.9,
426.552,2.62,
427.019,2.6,
427.485,2.87,
427.952,2.72,
428.419,2.69,
428.885,2.7,
429.352,2.6,
429.819,2.7,
430.285,2.88,
430.752,2.68,
431.219,2.71,
431.685,2.72,
432.152,2.74,
432.618,2.71,
433.085,2.96,
433.551,2.82,
434.018,2.6,
434.484,2.69,
434.95,2.58,
435.417,2.98,
435.883,2.63,
436.349,2.79,
436.816,2.69,
437.282,2.81,
437.748,2.64,
438.215,2.68,
438.681,2.73,
439.147,2.7,
439.613,2.64,
440.079,2.63,
440.545,2.51,
441.012,3.11,
441.478,2.84,
441.944,2.84,
442.41,2.59,
442.876,2.77,
443.342,2.67,
443.808,2.62,
444.274,2.86,
444.74,2.73,
445.206,2.63,
445.671,2.74,
446.137,2.83,
446.603,2.45,
447.069,2.71,
447.535,2.68,
448.001,2.57,
448.466,2.82,
448.932,2.77,
449.398,2.8,
449.863,2.74,
450.329,3.05,
450.795,2.66,
451.26,2.79,
451.726,3,
452.191,2.93,
452.657,2.79,
453.123,2.94,
453.588,2.67,
454.054,2.65,
454.519,3.01,
454.984,2.68,
455.45,2.64,
455.915,3.11,
456.381,2.61,
456.846,2.6,
457.311,2.82,
457.777,2.55,
458.242,2.69,
458.707,2.79,
459.172,2.66,
459.638,2.77,
460.103,2.83,
460.568,2.79,
461.033,2.75,
461.498,3.06,
461.963,2.74,
462.428,2.78,
462.893,3.07,
463.358,2.66,
463.823,2.83,
464.288,2.96,
464.753,2.73,
465.218,2.87,
465.683,2.92,
466.148,2.61,
466.613,2.78,
467.078,3.03,
467.543,2.86,
468.007,2.81,
468.472,2.8,
468.937,2.78,
469.402,2.74,
469.866,2.84,
470.331,2.78,
470.796,2.82,
471.26,2.91,
471.725,2.8,
472.19,2.71,
472.654,2.76,
473.119,2.81,
473.583,2.74,
474.048,2.88,
474.512,2.7,
474.977,2.8,
475.441,2.88,
475.906,2.84,
476.37,2.87,
476.834,2.85,
477.299,2.69,
477.763,2.92,
478.227,2.93,
478.692,2.86,
479.156,2.78,
479.62,2.98,
480.084,2.81,
480.548,2.72,
481.013,2.78,
481.477,2.87,
481.941,2.71,
482.405,2.85,
482.869,2.9,
483.333,2.79,
483.797,2.75,
484.261,2.77,
484.725,2.84,
485.189,2.75,
485.653,2.81,
486.117,2.8,
486.581,3.01,
487.044,2.95,
487.508,2.86,
487.972,2.83,
488.436,2.72,
488.9,2.67,
489.363,2.69,
489.827,2.75,
490.291,2.63,
490.754,2.67,
491.218,2.76,
491.682,2.73,
492.145,2.74,
492.609,2.7,
493.072,2.7,
493.536,2.75,
493.999,2.9,
494.463,2.74,
494.926,2.76,
495.39,2.75,
495.853,2.6,
496.316,2.66,
496.78,2.75,
497.243,2.72,
497.706,2.7,
498.17,2.68,
498.633,2.9,
499.096,2.76,
499.559,2.73,
500.023,2.96,
500.486,2.7,
500.949,2.79,
501.412,3,
501.875,2.71,
502.338,2.7,
502.801,3.23,
503.264,2.71,
503.727,2.89,
504.19,2.81,
504.653,2.82,
505.116,2.75,
505.579,2.82,
506.042,2.85,
506.505,2.76,
506.967,2.88,
507.43,2.97,
507.893,2.75,
508.356,2.84,
508.819,2.77,
509.281,2.71,
509.744,2.9,
510.207,2.79,
510.669,2.74,
511.132,2.82,
511.594,2.79,
512.057,2.79,
512.52,2.75,
512.982,2.68,
513.445,2.69,
513.907,2.81,
514.369,2.69,
514.832,2.73,
515.294,2.9,
515.757,2.64,
516.219,2.64,
516.681,2.93,
517.144,2.73,
517.606,2.77,
518.068,2.76,
518.53,2.69,
518.993,2.74,
519.455,3.09,
519.917,2.94,
520.379,2.66,
520.841,3.01,
521.303,2.82,
521.765,2.61,
522.227,3.01,
522.689,2.74,
523.151,2.54,
523.613,2.81,
524.075,2.76,
524.537,2.74,
524.999,2.83,
525.461,2.63,
525.923,2.54,
526.385,2.84,
526.846,2.69,
527.308,2.8,
527.77,2.71,
528.232,2.6,
528.693,2.76,
529.155,2.81,
529.617,2.58,
530.078,2.68,
530.54,2.71,
531.001,2.59,
531.463,2.72,
531.924,2.67,
532.386,2.63,
532.847,2.53,
533.309,2.77,
533.77,2.61,
534.232,2.73,
534.693,2.67,
535.154,2.79,
535.616,2.66,
536.077,2.8,
536.538,2.69,
536.999,2.78,
537.461,2.7,
537.922,2.76,
538.383,2.61,
538.844,2.58,
539.305,2.57,
539.766,2.55,
540.227,2.56,
540.688,2.69,
541.15,2.67,
541.611,2.59,
542.071,2.72,
542.532,2.48,
542.993,2.56,
543.454,2.64,
543.915,2.79,
544.376,2.63,
544.837,2.65,
545.298,2.56,
545.758,2.61,
546.219,2.66,
546.68,2.67,
547.141,2.82,
547.601,2.63,
548.062,2.69,
548.522,2.65,
548.983,2.58,
549.444,2.65,
549.904,2.53,
550.365,2.59,
550.825,2.84,
551.286,2.57,
551.746,2.62,
552.207,2.54,
552.667,2.47,
553.127,2.65,
553.588,2.6,
554.048,2.72,
554.508,2.68,
554.969,2.6,
555.429,2.59,
555.889,2.61,
556.349,2.58,
556.809,2.63,
557.27,2.51,
557.73,2.58,
558.19,2.56,
558.65,2.53,
559.11,2.58,
559.57,2.57,
560.03,2.48,
560.49,2.49,
560.95,2.55,
561.41,2.46,
561.87,2.52,
562.329,2.51,
562.789,2.49,
563.249,2.54,
563.709,2.44,
564.169,2.41,
564.628,2.45,
565.088,2.43,
565.548,2.44,
566.008,2.46,
566.467,2.4,
566.927,2.44,
567.386,2.44,
567.846,2.39,
568.305,2.35,
568.765,2.42,
569.224,2.33,
569.684,2.41,
570.143,2.37,
570.603,2.38,
571.062,2.36,
571.521,2.48,
571.981,2.3,
572.44,2.3,
572.899,2.4,
573.359,2.33,
573.818,2.36,
574.277,2.38,
574.736,2.3,
575.195,2.32,
575.655,2.31,
576.114,2.29,
576.573,2.29,
577.032,2.33,
577.491,2.26,
577.95,2.26,
578.409,2.26,
578.868,2.23,
579.327,2.25,
579.786,2.28,
580.244,2.23,
580.703,2.2,
581.162,2.25,
581.621,2.2,
582.08,2.21,
582.538,2.2,
582.997,2.18,
583.456,2.16,
583.914,2.17,
584.373,2.15,
584.832,2.16,
585.29,2.16,
585.749,2.13,
586.207,2.15,
586.666,2.15,
587.124,2.12,
587.583,2.12,
588.041,2.12,
588.5,2.09,
588.958,2.08,
589.416,2.09,
589.875,2.09,
590.333,2.08,
590.791,2.11,
591.249,2.07,
591.708,2.03,
592.166,2.05,
592.624,2.03,
593.082,2.03,
593.54,2.02,
593.998,2.02,
594.456,2.02,
594.914,2.02,
595.372,2.01,
595.83,2.02,
596.288,2,
596.746,1.99,
597.204,1.98,
597.662,1.98,
598.12,1.98,
598.578,1.97,
599.036,1.95,
599.493,1.95,
599.951,1.92,
600.409,1.94,
600.866,1.93,
601.324,1.92,
601.782,1.9,
602.239,1.9,
602.697,1.9,
603.155,1.89,
603.612,1.9,
604.07,1.88,
604.527,1.86,
604.985,1.86,
605.442,1.86,
605.899,1.85,
606.357,1.85,
606.814,1.85,
607.271,1.83,
607.729,1.82,
608.186,1.82,
608.643,1.82,
609.1,1.82,
609.558,1.81,
610.015,1.8,
610.472,1.79,
610.929,1.78,
611.386,1.78,
611.843,1.78,
612.3,1.76,
612.757,1.77,
613.214,1.76,
613.671,1.76,
614.128,1.75,
614.585,1.74,
615.042,1.74,
615.499,1.74,
615.955,1.73,
616.412,1.73,
616.869,1.71,
617.326,1.71,
617.782,1.71,
618.239,1.7,
618.696,1.7,
619.152,1.69,
619.609,1.68,
620.066,1.68,
620.522,1.69,
620.979,1.67,
621.435,1.66,
621.892,1.66,
622.348,1.65,
622.804,1.65,
623.261,1.65,
623.717,1.63,
624.173,1.64,
624.63,1.64,
625.086,1.62,
625.542,1.61,
625.999,1.63,
626.455,1.6,
626.911,1.61,
627.367,1.6,
627.823,1.59,
628.279,1.58,
628.735,1.59,
629.191,1.57,
629.647,1.56,
630.103,1.58,
630.559,1.57,
631.015,1.56,
631.471,1.57,
631.927,1.55,
632.383,1.53,
632.839,1.54,
633.294,1.54,
633.75,1.53,
634.206,1.53,
634.662,1.52,
635.117,1.52,
635.573,1.52,
636.029,1.51,
636.484,1.51,
636.94,1.51,
637.395,1.49,
637.851,1.49,
638.306,1.49,
638.762,1.48,
639.217,1.48,
639.673,1.48,
640.128,1.47,
640.583,1.47,
641.039,1.47,
641.494,1.47,
641.949,1.46,
642.404,1.46,
642.86,1.46,
643.315,1.45,
643.77,1.45,
644.225,1.44,
644.68,1.43,
645.135,1.43,
645.59,1.44,
646.045,1.42,
646.5,1.42,
646.955,1.42,
647.41,1.41,
647.865,1.41,
648.32,1.41,
648.775,1.41,
649.23,1.4,
649.684,1.4,
650.139,1.39,
650.594,1.39,
651.049,1.39,
651.503,1.38,
651.958,1.38,
652.413,1.38,
652.867,1.37,
653.322,1.37,
653.776,1.37,
654.231,1.36,
654.685,1.36,
655.14,1.36,
655.594,1.35,
656.049,1.35,
656.503,1.34,
656.958,1.34,
657.412,1.33,
657.866,1.33,
658.32,1.33,
658.775,1.32,
659.229,1.32,
659.683,1.32,
660.137,1.31,
660.591,1.31,
661.045,1.32,
661.5,1.3,
661.954,1.3,
662.408,1.3,
662.862,1.3,
663.316,1.29,
663.769,1.29,
664.223,1.29,
664.677,1.28,
665.131,1.29,
665.585,1.28,
666.039,1.27,
666.492,1.27,
666.946,1.27,
667.4,1.26,
667.854,1.26,
668.307,1.26,
668.761,1.26,
669.215,1.26,
669.668,1.26,
670.122,1.25,
670.575,1.25,
671.029,1.24,
671.482,1.24,
671.936,1.24,
672.389,1.23,
672.842,1.23,
673.296,1.23,
673.749,1.23,
674.202,1.23,
674.655,1.22,
675.109,1.22,
675.562,1.22,
676.015,1.22,
676.468,1.21,
676.921,1.21,
677.374,1.21,
677.827,1.2,
678.281,1.2,
678.734,1.2,
679.187,1.2,
679.639,1.19,
680.092,1.19,
680.545,1.19,
680.998,1.19,
681.451,1.19,
681.904,1.18,
682.357,1.18,
682.809,1.18,
683.262,1.17,
683.715,1.17,
684.167,1.18,
684.62,1.17,
685.073,1.17,
685.525,1.16,
685.978,1.16,
686.43,1.16,
686.883,1.16,
687.335,1.15,
687.788,1.15,
688.24,1.16,
688.692,1.15,
689.145,1.14,
689.597,1.15,
690.049,1.14,
690.502,1.14,
690.954,1.14,
691.406,1.13,
691.858,1.14,
692.31,1.13,
692.762,1.13,
693.215,1.13,
693.667,1.13,
694.119,1.12,
694.571,1.12,
695.023,1.12,
695.475,1.12,
695.926,1.11,
696.378,1.12,
696.83,1.11,
697.282,1.11,
697.734,1.11,
698.186,1.11,
698.637,1.11,
699.089,1.11,
699.541,1.1,
699.992,1.1,
700.444,1.1,
700.896,1.1,
701.347,1.09,
701.799,1.09,
702.25,1.09,
702.702,1.09,
703.153,1.09,
703.605,1.08,
704.056,1.08,
704.507,1.08,
704.959,1.08,
705.41,1.08,
705.861,1.07,
706.312,1.07,
706.764,1.07,
707.215,1.07,
707.666,1.07,
708.117,1.07,
708.568,1.07,
709.019,1.07,
709.47,1.06,
709.921,1.06,
710.372,1.06,
710.823,1.05,
711.274,1.06,
711.725,1.05,
712.176,1.06,
712.627,1.05,
713.078,1.05,
713.528,1.05,
713.979,1.04,
714.43,1.04,
714.881,1.05,
715.331,1.04,
715.782,1.04,
716.233,1.04,
716.683,1.04,
717.134,1.03,
717.584,1.04,
718.035,1.03,
718.485,1.03,
718.936,1.03,
719.386,1.03,
719.836,1.03,
720.287,1.02,
720.737,1.02,
721.187,1.02,
721.637,1.02,
722.088,1.01,
722.538,1.01,
722.988,1.01,
723.438,1.01,
723.888,1.01,
724.338,1.01,
724.788,1.01,
725.238,1,
725.688,1,
726.138,1,
726.588,1,
727.038,1,
727.488,0.99,
727.938,0.99,
728.388,0.99,
728.837,0.99,
729.287,0.99,
729.737,0.99,
730.187,0.99,
730.636,0.99,
731.086,0.99,
731.535,0.98,
731.985,0.98,
732.434,0.98,
732.884,0.97,
733.333,0.97,
733.783,0.97,
734.232,0.96,
734.682,0.96,
735.131,0.96,
735.58,0.96,
736.03,0.95,
736.479,0.95,
736.928,0.95,
737.377,0.94,
737.827,0.94,
738.276,0.93,
738.725,0.93,
739.174,0.93,
739.623,0.92,
740.072,0.91,
740.521,0.91,
740.97,0.91,
741.419,0.9,
741.868,0.9,
742.317,0.89,
742.766,0.88,
743.214,0.88,
743.663,0.87,
744.112,0.86,
744.561,0.85,
745.009,0.84,
745.458,0.84,
745.907,0.83,
746.355,0.82,
746.804,0.81,
747.252,0.8,
747.701,0.79,
748.149,0.78,
748.598,0.77,
749.046,0.76,
749.495,0.74,
749.943,0.74,
750.391,0.72,
750.84,0.71,
751.288,0.7,
751.736,0.68,
752.184,0.67,
752.632,0.66,
753.081,0.64,
753.529,0.63,
753.977,0.62,
754.425,0.6,
754.873,0.59,
755.321,0.57,
755.769,0.56,
756.217,0.54,
756.665,0.53,
757.113,0.51,
757.56,0.5,
758.008,0.48,
758.456,0.47,
758.904,0.45,
759.351,0.44,
759.799,0.42,
760.247,0.41,
760.694,0.4,
761.142,0.38,
761.59,0.37,
762.037,0.36,
762.485,0.34,
762.932,0.33,
763.38,0.32,
763.827,0.31,
764.274,0.29,
764.722,0.28,
765.169,0.27,
765.616,0.26,
766.064,0.25,
766.511,0.24,
766.958,0.23,
767.405,0.22,
767.852,0.21,
768.299,0.2,
768.747,0.19,
769.194,0.18,
769.641,0.18,
770.088,0.17,
770.535,0.16,
770.981,0.15,
771.428,0.15,
771.875,0.14,
772.322,0.13,
772.769,0.13,
773.216,0.12,
773.662,0.12,
774.109,0.11,
774.556,0.11,
775.002,0.11,
775.449,0.1,
775.896,0.1,
776.342,0.09,
776.789,0.09,
777.235,0.09,
777.682,0.08,
778.128,0.08,
778.574,0.08,
779.021,0.08,
779.467,0.07,
779.913,0.07,
780.36,0.07,
780.806,0.07,
781.252,0.06,
781.698,0.06,
782.144,0.06,
782.591,0.06,
783.037,0.06,
783.483,0.06,
783.929,0.06,
784.375,0.06,
784.821,0.05,
785.267,0.05,
785.713,0.05,
786.158,0.05,
786.604,0.05,
787.05,0.05,
787.496,0.05,
787.942,0.05,
788.387,0.05,
788.833,0.05,
789.279,0.05,
789.724,0.05,
790.17,0.05,
790.615,0.05,
791.061,0.05,
791.506,0.05,
791.952,0.05,
792.397,0.06,
792.843,0.05,
793.288,0.06,
793.733,0.06,
794.179,0.06,
794.624,0.06,
795.069,0.06,
795.514,0.06,
795.96,0.06,
796.405,0.06,
796.85,0.06,
797.295,0.06,
797.74,0.06,
798.185,0.06,
798.63,0.06,
799.075,0.06,
799.52,0.06,
799.965,0.06,
800.41,0.06,
800.854,0.06,
801.299,0.06,
801.744,0.07,
802.189,0.06,
802.633,0.07,
803.078,0.07,
803.523,0.07,
803.967,0.07,
804.412,0.07,
804.856,0.07,
805.301,0.07,
805.745,0.07,
806.19,0.07,
806.634,0.07,
807.079,0.07,
807.523,0.07,
807.967,0.07,
808.412,0.07,
808.856,0.07,
809.3,0.08,
809.744,0.08,
810.188,0.08,
810.633,0.08,
811.077,0.08,
811.521,0.08,
811.965,0.08,
812.409,0.08,
812.853,0.08,
813.297,0.08,
813.741,0.08,
814.184,0.08,
814.628,0.08,
815.072,0.08,
815.516,0.08,
815.96,0.08,
816.403,0.08,
816.847,0.09,
817.291,0.08,
817.734,0.08,
818.178,0.08,
818.621,0.09,
819.065,0.08,
819.508,0.08,
819.952,0.09,
820.395,0.09,
820.839,0.09,
821.282,0.09,
821.725,0.09,
822.169,0.09,
822.612,0.09,
823.055,0.09,
823.498,0.09,
823.941,0.09,
824.385,0.09,
824.828,0.09,
825.271,0.09,
825.714,0.09,
826.157,0.09,
826.6,0.09,
827.043,0.09,
827.486,0.09,
827.928,0.09,
828.371,0.09,
828.814,0.09,
829.257,0.09,
829.7,0.09,
830.142,0.09,
830.585,0.09,
831.028,0.09,
831.47,0.09,
831.913,0.09,
832.355,0.09,
832.798,0.09,
833.24,0.09,
833.683,0.09,
834.125,0.09,
834.568,0.09,
835.01,0.09,
835.452,0.09,
835.895,0.09,
836.337,0.09,
836.779,0.09,
837.221,0.09,
837.663,0.08,
838.106,0.09,
838.548,0.09,
838.99,0.08,
839.432,0.08,
839.874,0.08,
840.316,0.08,
840.758,0.08,
841.199,0.08,
841.641,0.08,
842.083,0.08,
842.525,0.08,
842.967,0.08,
843.408,0.08,
843.85,0.08,
844.292,0.08,
844.733,0.08,
845.175,0.08,
845.617,0.08,
846.058,0.08,
846.5,0.08,
846.941,0.08,
847.383,0.08,
847.824,0.07,
848.265,0.07,
848.707,0.07,
849.148,0.07,
849.589,0.07,
850.03,0.07,
850.472,0.07,
850.913,0.07,
851.354,0.07,
851.795,0.07,
852.236,0.07,
852.677,0.07,
853.118,0.07,
853.559,0.07,
854,0.07,
854.441,0.06,
854.882,0.06,
855.323,0.06,
855.764,0.06,
856.204,0.06,
856.645,0.06,
857.086,0.06,
857.526,0.06,
857.967,0.06,
858.408,0.06,
858.848,0.06,
859.289,0.06,
859.729,0.06,
860.17,0.06,
860.61,0.05,
861.051,0.05,
861.491,0.05,
861.931,0.05,
862.372,0.05,
862.812,0.05,
863.252,0.05,
863.692,0.05,
864.133,0.05,
864.573,0.05,
865.013,0.05,
865.453,0.05,
865.893,0.05,
866.333,0.04,
866.773,0.04,
867.213,0.04,
867.653,0.04,
868.093,0.04,
868.532,0.04,
868.972,0.04,
869.412,0.04,
869.852,0.04,
870.291,0.04,
870.731,0.04,
871.171,0.04,
871.61,0.04,
872.05,0.04,
872.49,0.04,
872.929,0.04,
873.368,0.03,
873.808,0.03,
874.247,0.03,
874.687,0.03,
875.126,0.03,
875.565,0.03,
876.005,0.03,
876.444,0.03,
876.883,0.03,
877.322,0.03,
877.761,0.03,
878.2,0.03,
878.64,0.02,
879.079,0.02,
879.518,0.02,
879.957,0.02,
880.395,0.02,
880.834,0.02,
881.273,0.02,
881.712,0.02,
882.151,0.02,
882.59,0.02,
883.028,0.02,
883.467,0.02,
883.906,0.02,
884.344,0.02,
884.783,0.02,
885.221,0.01,
885.66,0.01,
886.098,0.01,
886.537,0.01,
886.975,0.01,
887.414,0.01,
887.852,0.01,
888.29,0.01,
888.729,0.01,
889.167,0.01,
889.605,0.01,
890.043,0.01,
890.481,0.01,
890.92,0.01,
891.358,0.01,
891.796,0.01,
892.234,0.01,
892.672,0,
893.11,0,
893.548,0,
893.985,0,
894.423,0,
894.861,0,
895.299,0,
895.737,0,
896.174,0,
896.612,0,
897.05,0,
897.487,0,
897.925,0,
898.362,0,
898.8,0,
899.237,0,
899.675,0,
900.112,0,
900.549,0,
900.987,0,
901.424,0,
901.861,0,
902.299,0,
902.736,0,
903.173,0,
903.61,0,
904.047,0,
904.484,0,
904.921,0,
905.358,0,
905.795,0,
906.232,0,
906.669,0,
907.106,0,
907.543,0,
907.979,0,
908.416,0,
908.853,0,
909.289,0,
909.726,0,
910.163,0,
910.599,0,
911.036,0,
911.472,0,
911.909,0,
912.345,0,
912.782,0,
913.218,0,
913.654,0,
914.091,0,
914.527,0,
914.963,0,
915.399,0,
915.835,0,
916.272,0,
916.708,0,
917.144,0,
917.58,0,
918.016,0,
918.452,0,
918.888,0,
919.323,0.01,
919.759,0.01,
920.195,0.01,
920.631,0.01,
921.067,0.01,
921.502,0.01,
921.938,0.01,
922.374,0.01,
922.809,0.01,
923.245,0.01,
923.68,0.01,
924.116,0.01,
924.551,0.01,
924.987,0.01,
925.422,0.01,
925.857,0.01,
926.293,0.01,
926.728,0.01,
927.163,0.01,
927.598,0.02,
928.033,0.02,
928.469,0.02,
928.904,0.02,
929.339,0.02,
929.774,0.02,
930.209,0.02,
930.644,0.02,
931.079,0.02,
931.514,0.02,
931.948,0.02,
932.383,0.02,
932.818,0.02,
933.253,0.02,
933.688,0.02,
934.122,0.02,
934.557,0.03,
934.991,0.03,
935.426,0.03,
935.861,0.03,
936.295,0.03,
936.73,0.03,
937.164,0.03,
937.598,0.03,
938.033,0.03,
938.467,0.03,
938.901,0.03,
939.336,0.03,
939.77,0.03,
940.204,0.03,
940.638,0.03,
941.072,0.03,
941.506,0.04,
941.94,0.04,
942.374,0.04,
942.808,0.04,
943.242,0.04,
943.676,0.04,
944.11,0.04,
944.544,0.04,
944.978,0.04,
945.411,0.04,
945.845,0.04,
946.279,0.04,
946.713,0.04,
947.146,0.04,
947.58,0.05,
948.013,0.05,
948.447,0.05,
948.88,0.05,
949.314,0.05,
949.747,0.05,
950.18,0.05,
950.614,0.05,
951.047,0.05,
951.48,0.05,
951.914,0.05,
952.347,0.05,
952.78,0.05,
953.213,0.06,
953.646,0.06,
954.079,0.06,
954.512,0.06,
954.945,0.06,
955.378,0.06,
955.811,0.06,
956.244,0.06,
956.677,0.06,
957.109,0.07,
957.542,0.06,
957.975,0.07,
958.408,0.07,
958.84,0.07,
959.273,0.07,
959.705,0.07,
960.138,0.07,
960.57,0.07,
961.003,0.07,
961.435,0.07,
961.868,0.07,
962.3,0.08,
962.732,0.08,
963.165,0.08,
963.597,0.08,
964.029,0.08,
964.461,0.08,
964.894,0.08,
965.326,0.08,
965.758,0.08,
966.19,0.08,
966.622,0.08,
967.054,0.08,
967.486,0.08,
967.918,0.08,
968.349,0.08,
968.781,0.08,
969.213,0.09,
969.645,0.09,
970.076,0.09,
970.508,0.09,
970.94,0.09,
971.371,0.09,
971.803,0.09,
972.234,0.09,
972.666,0.09,
973.097,0.09,
973.529,0.09,
973.96,0.09,
974.392,0.09,
974.823,0.09,
975.254,0.1,
975.685,0.1,
976.117,0.1,
976.548,0.1,
976.979,0.1,
977.41,0.1,
977.841,0.1,
978.272,0.1,
978.703,0.1,
979.134,0.1,
979.565,0.1,
979.996,0.1,
980.427,0.1,
980.857,0.1,
981.288,0.11,
981.719,0.1,
982.15,0.1,
982.58,0.11,
983.011,0.11,
983.441,0.11,
983.872,0.11,
984.302,0.11,
984.733,0.11,
985.163,0.11,
985.594,0.11,
986.024,0.11,
986.454,0.11,
986.885,0.11,
987.315,0.11,
987.745,0.11,
988.175,0.11,
988.605,0.11,
989.036,0.11,
989.466,0.11,
989.896,0.11,
990.326,0.11,
990.756,0.12,
991.185,0.11,
991.615,0.11,
992.045,0.12,
992.475,0.12,
992.905,0.11,
993.335,0.12,
993.764,0.12,
994.194,0.12,
994.623,0.12,
995.053,0.11,
995.483,0.12,
995.912,0.12,
996.342,0.12,
996.771,0.12,
997.2,0.12,
997.63,0.12,
998.059,0.12,
998.488,0.12,
998.918,0.12,
999.347,0.12,
999.776,0.12,
1000.205,0.12,
1000.634,0.12,
1001.063,0.12,
1001.492,0.12,
1001.921,0.12,
1002.35,0.12,
1002.779,0.12,
1003.208,0.12,
1003.637,0.12,
1004.066,0.12,
1004.495,0.12,
1004.923,0.12,
1005.352,0.12,
1005.781,0.12,
1006.209,0.12,
1006.638,0.12,
1007.066,0.12,
1007.495,0.12,
1007.923,0.12,
1008.352,0.12,
1008.78,0.12,
1009.209,0.12,
1009.637,0.12,
1010.065,0.12,
1010.493,0.12,
1010.922,0.12,
1011.35,0.12,
1011.778,0.12,
1012.206,0.12,
1012.634,0.12,
1013.062,0.12,
1013.49,0.12,
1013.918,0.12,
1014.346,0.12,
1014.774,0.12,
1015.202,0.12,
1015.629,0.12,
1016.057,0.12,
1016.485,0.12,
1016.913,0.12,
1017.34,0.12,
1017.768,0.12,
1018.195,0.12,
1018.623,0.12,
1019.05,0.12,
1019.478,0.12,
1019.905,0.12,
1020.333,0.12,
1020.76,0.12,
1021.187,0.12,
1021.615,0.12,
1022.042,0.12,
1022.469,0.12,
1022.896,0.12,
1023.323,0.12,
1023.75,0.12,
1024.177,0.12,
1024.604,0.12,
1025.031,0.12,
1025.458,0.12,
1025.885,0.12,
1026.312,0.12,
1026.739,0.12,
1027.166,0.12,
1027.592,0.12,
1028.019,0.11,
1028.446,0.11,
1028.872,0.11,
1029.299,0.11,
1029.726,0.11,
1030.152,0.11,
1030.579,0.11,
1031.005,0.11,
1031.431,0.11,
1031.858,0.11,
1032.284,0.11,
1032.71,0.11,
1033.137,0.11,
1033.563,0.11,
1033.989,0.11,
1034.415,0.11,
1034.841,0.11,
1035.267,0.11,
1035.693,0.11,
1036.119,0.11,
1036.545,0.11,
1036.971,0.11,
1037.397,0.11,
1037.823,0.1,
1038.249,0.1,
1038.674,0.1,
1039.1,0.1,
1039.526,0.1,
1039.951,0.11,
1040.377,0.1,
1040.802,0.1,
1041.228,0.1,
1041.653,0.1,
1042.079,0.1,
1042.504,0.1,
1042.93,0.1,
1043.355,0.1,
1043.78,0.1,
1044.206,0.1,
1044.631,0.1,
1045.056,0.1,
1045.481,0.09,
1045.906,0.09,
1046.331,0.1,
1046.756,0.09,
1047.181,0.09,
1047.606,0.09,
1048.031,0.09,
1048.456,0.09,
1048.881,0.1,
1049.306,0.09,
1049.73,0.08,
1050.155,0.09,
1050.58,0.09,
1051.004,0.09,
1051.429,0.09,
1051.854,0.09,
1052.278,0.08,
1052.703,0.09,
1053.127,0.08,
1053.551,0.08,
1053.976,0.08,
1054.4,0.08,
1054.824,0.08,
1055.249,0.08,
1055.673,0.08,
1056.097,0.08,
1056.521,0.08,
1056.945,0.07,
1057.369,0.07,
1057.793,0.08,
1058.217,0.07,
1058.641,0.07,
1059.065,0.08,
1059.489,0.07,
1059.913,0.07,
1060.337,0.08,
1060.76,0.07,
1061.184,0.07,
1061.608,0.07,
1062.031,0.06,
1062.455,0.07,
1062.879,0.07,
1063.302,0.07,
1063.726,0.07,
1064.149,0.06,
1064.572,0.07,
1064.996,0.06,
1065.419,0.06,
1065.842,0.06,
1066.266,0.05,
1066.689,0.06,
1067.112,0.06,
1067.535,0.06,
1067.958,0.05,
1068.381,0.06,
1068.804,0.06,
1069.227,0.05,
1069.65,0.05,
1070.073,0.05,
1070.496,0.05,
1070.919,0.04,
1071.341,0.05,
1071.764,0.05,
1072.187,0.04,
1072.61,0.04,
1073.032,0.04,
1073.455,0.04,
1073.877,0.05,
1074.3,0.05,
1074.722,0.04,
1075.145,0.04,
1075.567,0.04,
1075.989,0.05,
1076.412,0.04,
1076.834,0.03,
1077.256,0.04,
1077.678,0.04,
1078.101,0.04,
1078.523,0.04,
1078.945,0.03,
1079.367,0.04,
1079.789,0.05,
1080.211,0.03,
1080.633,0.03,
1081.054,0.03,
1081.476,0.04,
1081.898,0.03,
1082.32,0.03,
1082.742,0.04,
1083.163,0.03,
1083.585,0.02,
1084.006,0.03,
1084.428,0.03,
1084.85,0.02,
1085.271,0.03,
1085.692,0.03,
1086.114,0.01,
1086.535,0.01,
1086.957,0.02,
1087.378,0.01,
1087.799,0.03,
1088.22,0.01,
1088.641,0.01,
1089.063,0.02,
1089.484,0.01,
1089.905,0,
1090.326,0.03,
1090.747,0.02,
1091.168,-0.01,
1091.588,0.01,
1092.009,0,
1092.43,-0.02,
1092.851,0.01,
1093.272,0,
1093.692,-0.01,
1094.113,0.01,
1094.533,-0.01,
1094.954,0,
1095.375,0.01,
1095.795,0.01,
1096.216,-0.01,
1096.636,0,
1097.056,-0.01,
1097.477,-0.01,
1097.897,0.02,
1098.317,-0.01,
1098.737,-0.02,
1099.158,-0.01,
1099.578,0,
1099.998,-0.02,
1100.418,0,
1100.838,-0.01,
1101.258,-0.02,
1101.678,0,
1102.098,-0.01,
1102.517,-0.02,
1102.937,0,
1103.357,-0.01,
1103.777,-0.02,
1104.196,-0.01,
1104.616,-0.01,
1105.036,-0.01,
1105.455,0.02,
1105.875,-0.01,
1106.294,-0.03,
1106.714,-0.01,
1107.133,-0.01,
1107.552,-0.03,
1107.972,-0.01,
1108.391,0.01,
1108.81,-0.03,
1109.23,0,
1109.649,-0.02,
1110.068,-0.01,
1110.487,-0.02,
1110.906,0,
1111.325,-0.04,
1111.744,-0.01,
1112.163,-0.03,
1112.582,-0.06,
1113.001,-0.03,
610.26129,,0.00321
610.53528,,0.00175
610.80927,,0.00175
611.08325,,0.00233
611.35724,,0.00292
611.63123,,0.000875
611.90521,,0.00175
612.17914,,0.00379
612.45312,,0.000583
612.72711,,0.00379
613.0011,,0.00292
613.27509,,0.00204
613.54901,,0.00292
613.823,,0.00146
614.09698,,0.000292
614.37091,,0.00233
614.6449,,0.00262
614.91888,,0.00175
615.19281,,0.00262
615.4668,,0.00146
615.74072,,0.000583
616.01471,,-0.000875
616.2887,,0.00262
616.56262,,0.000875
616.83661,,0.00292
617.11053,,0.00175
617.38452,,0.00175
617.65845,,0.00321
617.93243,,0.00262
618.20636,,0.00321
618.48029,,0.00146
618.75427,,0.0035
619.0282,,0.00233
619.30219,,0.00175
619.57611,,0.000583
619.85004,,0.00321
620.12402,,0.00321
620.39795,,0.00204
620.67188,,0.000583
620.9458,,0.00117
621.21979,,0.00292
621.49371,,0.00204
621.76764,,0.00146
622.04156,,0.0035
622.31549,,0.00233
622.58942,,0.00117
622.86334,,0.000875
623.13727,,0.000875
623.41125,,0.000875
623.68518,,0.000875
623.95911,,0.00437
624.23303,,0.00175
624.50696,,0.000875
624.78088,,0.00146
625.05475,,0.000583
625.32867,,0.000583
625.6026,,0.000875
625.87653,,0.000875
626.15045,,0.00321
626.42438,,0.00233
626.6983,,0.00146
626.97217,,-0.000583
627.24609,,0.00321
627.52002,,0.000583
627.79395,,0.00262
628.06781,,-0.000292
628.34174,,0.00117
628.61566,,0.00292
628.88953,,0.00204
629.16345,,0.00321
629.43732,,0.00233
629.71124,,0.00146
629.98511,,0.00262
630.25903,,0
630.5329,,0
630.80682,,0.0035
631.08069,,0.000292
631.35461,,0.0035
631.62848,,0.00204
631.90234,,0.00233
632.17627,,0.00204
632.45013,,0.00233
632.724,,0.00408
632.99792,,0.00379
633.27179,,0.0035
633.54565,,0.00117
633.81952,,0.00379
634.09338,,0.00117
634.36731,,0.00321
634.64117,,0.00262
634.91504,,0.00146
635.1889,,0.00233
635.46277,,-0.000583
635.73663,,0.000875
636.0105,,-0.000583
636.28436,,0.00233
636.55823,,0.00321
636.83209,,0.00321
637.10596,,0.00233
637.37976,,0.000292
637.65363,,0.00175
637.92749,,-0.000583
638.20135,,0.000875
638.47522,,0.00204
638.74902,,0.00204
639.02289,,0.00146
639.29675,,0.00204
639.57056,,0.000875
639.84442,,0.00117
640.11829,,0.00204
640.39209,,0.00262
640.66595,,0.00204
640.93976,,0.000583
641.21362,,0.00466
641.48743,,0
641.76129,,0.00233
642.0351,,0.00292
642.3089,,-0.000583
642.58276,,0.000875
642.85657,,0.000875
643.13037,,0.00117
643.40417,,0.00379
643.67804,,0.00175
643.95184,,0.00117
644.22565,,0.00233
644.49945,,0.00408
644.77325,,0.0035
645.04706,,0.000583
645.32086,,0.00204
645.59467,,0.00117
645.86847,,0.00204
646.14227,,0
646.41608,,-0.000583
646.68988,,0.000583
646.96368,,0.00262
647.23749,,0.00379
647.51129,,0.00175
647.7851,,0.00262
648.05884,,0.00117
648.33264,,0.000583
648.60645,,0.000875
648.88019,,0.00117
649.15399,,0.00233
649.4278,,0.00292
649.70154,,0.00321
649.97534,,0.00292
650.24908,,0.00175
650.52289,,0.00146
650.79663,,0.00408
651.07043,,0.00204
651.34418,,0.00262
651.61792,,0.00262
651.89172,,0.00262
652.16547,,0.00408
652.43921,,0.00379
652.71295,,0.00379
652.98676,,0.00321
653.2605,,0.0035
653.53424,,0.00233
653.80798,,0.00262
654.08173,,0.00408
654.35547,,0.00146
654.62921,,0.00204
654.90295,,0.00204
655.1767,,0.00321
655.45044,,0.00175
655.72418,,0.00233
655.99786,,0.00262
656.27161,,0.00321
656.54535,,0.00146
656.81909,,0.00496
657.09277,,0.00175
657.36652,,0.00321
657.64026,,0.00321
657.91394,,0.00262
658.18768,,0.00233
658.46136,,0.00117
658.73511,,0.00262
659.00879,,0.00204
659.28253,,0.00408
659.55621,,0.00233
659.8299,,0.00321
660.10364,,0.00408
660.37732,,0.00292
660.651,,0.00233
660.92468,,0.00379
661.19843,,0.00321
661.47211,,0.00175
661.74579,,0.00292
662.01947,,0.00496
662.29315,,0.00262
662.56683,,0.00321
662.84052,,0.00408
663.1142,,0.00262
663.38788,,0.00466
663.6615,,0.00321
663.93518,,0.00321
664.20886,,0.0035
664.48254,,0.00175
664.75616,,0.00146
665.02985,,0.00233
665.30353,,0.00204
665.57715,,0.00117
665.85083,,0.0035
666.12445,,0.0035
666.39813,,0.00146
666.67175,,0.00204
666.94543,,0.0035
667.21906,,0.00146
667.49268,,0.00408
667.76636,,0.00262
668.03998,,0.00496
668.3136,,0.00321
668.58722,,0.00146
668.86084,,0.00466
669.13446,,0.00554
669.40808,,0.00233
669.6817,,0.00408
669.95532,,0.00525
670.22894,,0.00204
670.50256,,0.00437
670.77618,,0.00321
671.0498,,0.00175
671.32343,,0.00175
671.59698,,0.0035
671.87061,,0.00321
672.14423,,0.00408
672.41779,,0.00408
672.69141,,0.00233
672.96497,,0.00292
673.23859,,0.00437
673.51215,,0.0035
673.78577,,0.00466
674.05933,,0.00292
674.33295,,0.0035
674.60651,,0.00583
674.88007,,0.00321
675.15363,,0.00379
675.42719,,0.00612
675.70081,,0.00437
675.97437,,0.00525
676.24792,,0.00525
676.52148,,0.00437
676.79504,,0.0035
677.0686,,0.00466
677.3421,,0.00292
677.61566,,0.00408
677.88922,,0.00525
678.16278,,0.00466
678.43634,,0.00554
678.70984,,0.00525
678.9834,,0.00496
679.2569,,0.00466
679.53046,,0.00466
679.80396,,0.00408
680.07751,,0.00641
680.35101,,0.00466
680.62457,,0.00466
680.89807,,0.00379
681.17157,,0.00437
681.44507,,0.00437
681.71863,,0.00612
681.99213,,0.00671
682.26562,,0.00525
682.53912,,0.00554
682.81262,,0.00729
683.08612,,0.00787
683.35962,,0.00466
683.63312,,0.007
683.90662,,0.007
684.18005,,0.00729
684.45355,,0.00816
684.72705,,0.00671
685.00049,,0.00437
685.27399,,0.00496
685.54749,,0.00641
685.82092,,0.00641
686.09442,,0.00641
686.36786,,0.00612
686.6413,,0.00612
686.91479,,0.00496
687.18823,,0.007
687.46167,,0.00845
687.73511,,0.00612
688.00861,,0.00671
688.28204,,0.00554
688.55548,,0.00875
688.82892,,0.007
689.10236,,0.00758
689.37579,,0.007
689.64923,,0.00816
689.92261,,0.00845
690.19604,,0.00845
690.46948,,0.00787
690.74292,,0.00991
691.0163,,0.01137
691.28973,,0.00991
691.56311,,0.00933
691.83655,,0.0105
692.10992,,0.01254
692.38336,,0.00991
692.65674,,0.00991
692.93011,,0.01224
693.20355,,0.00991
693.47693,,0.01195
693.75031,,0.00991
694.02368,,0.00904
694.29706,,0.01224
694.57043,,0.01166
694.84381,,0.01079
695.11719,,0.01283
695.39056,,0.01312
695.66394,,0.01312
695.93726,,0.01254
696.21063,,0.01429
696.48401,,0.01166
696.75732,,0.01487
697.0307,,0.01662
697.30408,,0.0137
697.57739,,0.0137
697.85071,,0.01399
698.12408,,0.01691
698.3974,,0.01662
698.67072,,0.01895
698.94409,,0.01545
699.21741,,0.01691
699.49072,,0.01778
699.76404,,0.01749
700.03735,,0.01837
700.31067,,0.01603
700.58398,,0.01866
700.8573,,0.01953
701.13055,,0.01778
701.40387,,0.02187
701.67719,,0.0207
701.9505,,0.01895
702.22375,,0.02187
702.49707,,0.0207
702.77032,,0.02099
703.04364,,0.02303
703.31689,,0.02536
703.59015,,0.0242
703.86346,,0.02449
704.13672,,0.02391
704.40997,,0.02362
704.68323,,0.02391
704.95648,,0.02362
705.22974,,0.02915
705.50299,,0.02595
705.77625,,0.02536
706.0495,,0.02799
706.32275,,0.02828
706.59601,,0.02799
706.8692,,0.02886
707.14246,,0.0309
707.41571,,0.03178
707.6889,,0.03499
707.96216,,0.03236
708.23535,,0.03528
708.50854,,0.0344
708.7818,,0.03324
709.05499,,0.03557
709.32819,,0.03732
709.60138,,0.03528
709.87463,,0.03644
710.14783,,0.04257
710.42102,,0.04082
710.69421,,0.03878
710.96735,,0.04431
711.24054,,0.04257
711.51373,,0.04286
711.78693,,0.04548
712.06006,,0.04694
712.33325,,0.04606
712.60645,,0.04781
712.87958,,0.04985
713.15277,,0.05015
713.4259,,0.04927
713.69904,,0.05423
713.97217,,0.05044
714.24536,,0.05423
714.51849,,0.05248
714.79163,,0.06064
715.06476,,0.05423
715.33789,,0.05918
715.61102,,0.05889
715.88416,,0.0621
716.15729,,0.06618
716.43036,,0.06618
716.70349,,0.06531
716.97662,,0.06822
717.24969,,0.06676
717.52283,,0.06793
717.7959,,0.06939
718.06903,,0.07551
718.3421,,0.0688
718.61517,,0.07901
718.88831,,0.07318
719.16138,,0.07988
719.43445,,0.08134
719.70752,,0.0828
719.98059,,0.08863
720.25366,,0.0828
720.52673,,0.08426
720.7998,,0.0898
721.07281,,0.09067
721.34589,,0.09155
721.61896,,0.0965
721.89197,,0.09708
722.16504,,0.10029
722.43805,,0.10321
722.71112,,0.09942
722.98413,,0.1035
723.25714,,0.10845
723.53021,,0.11166
723.80322,,0.11662
724.07623,,0.11195
724.34924,,0.11691
724.62225,,0.12041
724.89526,,0.12478
725.16827,,0.12449
725.44122,,0.12595
725.71423,,0.12711
725.98724,,0.13411
726.26019,,0.1344
726.5332,,0.1379
726.80621,,0.14373
727.07916,,0.14606
727.35211,,0.1481
727.62512,,0.15073
727.89807,,0.15015
728.17102,,0.16181
728.44397,,0.16035
728.71692,,0.16706
728.98987,,0.1688
729.26282,,0.17026
729.53577,,0.17784
729.80872,,0.1793
730.08167,,0.17784
730.35455,,0.18338
730.6275,,0.18746
730.90045,,0.18892
731.17334,,0.20175
731.44623,,0.20204
731.71918,,0.20612
731.99207,,0.20904
732.26495,,0.21079
732.5379,,0.21749
732.81079,,0.22566
733.08368,,0.22566
733.35657,,0.23324
733.62946,,0.23703
733.90228,,0.24111
734.17517,,0.2414
734.44806,,0.25102
734.72095,,0.25627
734.99377,,0.26356
735.26666,,0.26822
735.53949,,0.2723
735.81238,,0.28163
736.08521,,0.27872
736.35803,,0.29038
736.63086,,0.29621
736.90375,,0.3035
737.17657,,0.30671
737.4494,,0.3172
737.72223,,0.32478
737.99506,,0.32741
738.26782,,0.33149
738.54065,,0.33673
738.81348,,0.35219
739.08624,,0.35656
739.35907,,0.36793
739.63184,,0.37114
739.90466,,0.37988
740.17743,,0.38805
740.4502,,0.40146
740.72302,,0.39738
740.99579,,0.4137
741.26855,,0.41749
741.54132,,0.42449
741.81409,,0.43936
742.08685,,0.45773
742.35962,,0.45714
742.63232,,0.46472
742.90509,,0.46968
743.17786,,0.48017
743.45056,,0.48717
743.72333,,0.49038
743.99603,,0.5035
744.26874,,0.51458
744.5415,,0.53586
744.81421,,0.53761
745.08691,,0.54577
745.35962,,0.55335
745.63232,,0.56676
745.90503,,0.5793
746.17773,,0.57434
746.45038,,0.59796
746.72308,,0.59621
746.99579,,0.61254
747.26843,,0.62216
747.54114,,0.63528
747.81378,,0.64636
748.08649,,0.6519
748.35913,,0.64723
748.63177,,0.66735
748.90442,,0.6723
749.17706,,0.68455
749.44971,,0.70321
749.72235,,0.70641
749.995,,0.72507
750.26764,,0.7344
750.54028,,0.73382
750.81287,,0.7519
751.08551,,0.76064
751.35809,,0.77522
751.63074,,0.76443
751.90332,,0.78251
752.17596,,0.79038
752.44855,,0.80437
752.72113,,0.82041
752.99371,,0.8207
753.2663,,0.83499
753.53888,,0.83061
753.81146,,0.85569
754.08405,,0.84781
754.35657,,0.86764
754.62915,,0.87405
754.90173,,0.8793
755.17426,,0.8863
755.44684,,0.88688
755.71936,,0.91662
755.99188,,0.90087
756.2644,,0.91633
756.53699,,0.91808
756.80951,,0.91633
757.08203,,0.92886
757.35455,,0.94985
757.62701,,0.93819
757.89954,,0.9449
758.17206,,0.94461
758.44452,,0.96793
758.71704,,0.9691
758.9895,,0.97493
759.26202,,0.9688
759.53448,,0.96968
759.80695,,0.96997
760.07947,,0.97405
760.35193,,0.97668
760.62439,,0.97638
760.89685,,0.98105
761.16931,,0.97434
761.44171,,0.98134
761.71417,,0.9863
761.98663,,1
762.25903,,1
762.53149,,0.97813
762.80389,,0.9895
763.07635,,0.99329
763.34875,,0.97901
763.62115,,0.99796
763.89355,,0.993
764.16595,,0.97901
764.43835,,0.99767
764.71075,,0.98222
764.98315,,0.97464
765.25555,,0.98076
765.52789,,0.98426
765.80029,,0.97201
766.07263,,0.97259
766.34503,,0.97114
766.61737,,0.97259
766.88971,,0.96093
767.16211,,0.9519
767.43445,,0.93936
767.70679,,0.94985
767.97913,,0.94898
768.25146,,0.93061
768.52374,,0.93528
768.79608,,0.91924
769.06842,,0.93528
769.3407,,0.91778
769.61304,,0.90962
769.88531,,0.89767
770.15765,,0.88776
770.42993,,0.89242
770.70221,,0.89096
770.97449,,0.87551
771.24677,,0.85423
771.51904,,0.87347
771.79132,,0.85627
772.0636,,0.85714
772.33582,,0.83382
772.60809,,0.82799
772.88037,,0.83061
773.15259,,0.81837
773.4248,,0.81254
773.69708,,0.7965
773.9693,,0.793
774.24152,,0.79563
774.51373,,0.78076
774.78595,,0.77843
775.05817,,0.76385
775.33038,,0.74286
775.6026,,0.73994
775.87476,,0.73294
776.14697,,0.72099
776.41913,,0.7137
776.69135,,0.70321
776.9635,,0.69504
777.23566,,0.68426
777.50781,,0.66443
777.78003,,0.67026
778.05219,,0.64694
778.32428,,0.65569
778.59644,,0.63761
778.86859,,0.63324
779.14075,,0.6344
779.41284,,0.61399
779.685,,0.59184
779.95709,,0.60233
780.22925,,0.58863
780.50134,,0.57755
780.77344,,0.56764
781.04553,,0.55948
781.31763,,0.54461
781.58972,,0.55102
781.86182,,0.53294
782.13391,,0.53382
782.40594,,0.5242
782.67804,,0.50525
782.95007,,0.5137
783.22217,,0.50292
783.4942,,0.49854
783.7663,,0.47988
784.03833,,0.47201
784.31036,,0.46443
784.5824,,0.45977
784.85443,,0.43907
785.12646,,0.4449
785.39844,,0.43207
785.67047,,0.43294
785.9425,,0.41837
786.21448,,0.42682
786.48645,,0.41341
786.75848,,0.40058
787.03046,,0.40554
787.30243,,0.39009
787.5744,,0.37872
787.84637,,0.38047
788.11835,,0.37318
788.39032,,0.36618
788.66229,,0.36064
788.9342,,0.34461
789.20618,,0.35131
789.47809,,0.34752
789.75006,,0.33965
790.02197,,0.33732
790.29388,,0.31866
790.5658,,0.32274
790.83771,,0.30612
791.10962,,0.31312
791.38153,,0.29767
791.65344,,0.29446
791.92535,,0.29475
792.1972,,0.28863
792.46912,,0.2863
792.74097,,0.28192
793.01282,,0.2723
793.28473,,0.27405
793.55658,,0.2621
793.82843,,0.26064
794.10028,,0.25073
794.37213,,0.24665
794.64398,,0.24636
794.91577,,0.24111
795.18762,,0.23644
795.45947,,0.23236
795.73126,,0.22274
796.00305,,0.22682
796.2749,,0.21866
796.54669,,0.21195
796.81848,,0.21166
797.09027,,0.20379
797.36206,,0.19475
797.63385,,0.19971
797.90558,,0.19359
798.17737,,0.18717
798.44916,,0.18863
798.72089,,0.1828
798.99261,,0.18047
799.2644,,0.16706
799.53613,,0.17347
799.80786,,0.16501
800.07959,,0.16589
800.35132,,0.16327
800.62305,,0.16035
800.89471,,0.15977
801.16644,,0.1519
801.43817,,0.15219
801.70984,,0.14723
801.98157,,0.14519
802.25323,,0.14023
802.5249,,0.13732
802.79657,,0.13499
803.06824,,0.13499
803.3399,,0.12886
803.61157,,0.12653
803.88324,,0.12595
804.15485,,0.12332
804.42651,,0.11895
804.69812,,0.11895
804.96979,,0.11778
805.24139,,0.11079
805.513,,0.10933
805.78461,,0.10787
806.05621,,0.10758
806.32782,,0.10408
806.59943,,0.10583
806.87103,,0.09942
807.14258,,0.09446
807.41418,,0.093
807.68573,,0.09329
807.95728,,0.09271
808.22888,,0.08834
808.50043,,0.08659
808.77197,,0.0828
809.04352,,0.08455
809.31506,,0.0828
809.58661,,0.08163
809.85809,,0.08076
810.12964,,0.08076
810.40112,,0.07974
810.67267,,0.07873
810.94415,,0.07772
811.21564,,0.0767
811.48712,,0.07569
811.75861,,0.07468
812.03009,,0.07366
812.30157,,0.07265
812.57306,,0.07164
812.84448,,0.07062
813.11597,,0.06961
813.38739,,0.0686
813.65887,,0.06758
813.9303,,0.06657
814.20172,,0.06556
814.47314,,0.06454
814.74457,,0.06353
815.01599,,0.06252
815.28741,,0.0615
815.55878,,0.06049
815.8302,,0.05948
816.10156,,0.05847
816.37299,,0.05745
816.64435,,0.05644
816.91571,,0.05543
817.18707,,0.05441
817.45844,,0.0534
817.7298,,0.05239
818.00116,,0.05137
818.27252,,0.05036
818.54382,,0.04935
818.81519,,0.04834
819.08649,,0.04732
819.35785,,0.04631
819.62915,,0.0453
819.90045,,0.04428
820.17175,,0.04327
820.44305,,0.04226
820.71436,,0.04125
820.9856,,0.04023
821.2569,,0.03819
821.52814,,0.03586
821.79944,,0.03703
822.07068,,0.03557
822.34192,,0.03382
822.61316,,0.03149
822.88446,,0.03207
823.15564,,0.03178
823.42688,,0.03061
823.69812,,0.03061
823.96936,,0.03149
824.24054,,0.03032
824.51172,,0.0312
824.78296,,0.02945
825.05414,,0.02915
825.32532,,0.03061
825.5965,,0.02974
825.86768,,0.03061
826.13885,,0.02945
826.41003,,0.0312
826.68115,,0.03294
826.95233,,0.02711
827.22345,,0.02595
827.49457,,0.0277
827.76575,,0.02566
828.03687,,0.02711
828.30798,,0.02886
828.5791,,0.02653
828.85016,,0.0277
829.12128,,0.02915
829.3924,,0.02711
829.66345,,0.0277
829.93457,,0.02886
830.20563,,0.02624
830.47668,,0.02945
830.74774,,0.02945
831.0188,,0.02828
831.28986,,0.02566
831.56091,,0.02449
831.83191,,0.02595
832.10297,,0.02624
832.37396,,0.02566
832.64502,,0.02566
832.91602,,0.02157
833.18701,,0.01983
833.45801,,0.01837
833.729,,0.01778
834,,0.01516
834.271,,0.01603
834.54193,,0.0137
834.81293,,0.01516
835.08386,,0.01458
835.35486,,0.01399
835.62579,,0.01399
835.89673,,0.01254
836.16766,,0.01166
836.4386,,0.01283
836.70947,,0.01108
836.98041,,0.01254
837.25134,,0.0105
837.52222,,0.01137
837.79315,,0.01195
838.06403,,0.01137
838.3349,,0.01166
838.60577,,0.01108
838.87665,,0.01108
839.14752,,0.00962
839.4184,,0.01166
839.68921,,0.00962
839.96008,,0.01079
840.2309,,0.00904
840.50171,,0.00845
840.77258,,0.00991
841.0434,,0.00758
841.31421,,0.00758
841.58502,,0.00787
841.85577,,0.00933
842.12659,,0.0102
842.3974,,0.00904
842.66815,,0.00787
842.9389,,0.00816
843.20972,,0.00904
843.48047,,0.007
843.75122,,0.00875
844.02197,,0.00729
844.29266,,0.00787
844.56342,,0.007
844.83417,,0.00612
845.10486,,0.00641
845.37555,,0.00583
845.6463,,0.00729
845.91699,,0.007
846.18768,,0.00671
846.45837,,0.00816
846.72906,,0.00554
846.99969,,0.00671
847.27039,,0.00554
847.54102,,0.00933
847.81171,,0.00554
848.08234,,0.00758
848.35297,,0.00758
848.6236,,0.00437
848.89423,,0.00466
849.16486,,0.00554
849.43549,,0.00554
849.70605,,0.00758
849.97668,,0.007
850.24725,,0.00612
850.51788,,0.00379
850.78845,,0.00671
851.05902,,0.00466
851.32959,,0.0035
851.60016,,0.00641
851.87067,,0.00408
852.14124,,0.007
852.41174,,0.0035
852.68231,,0.00525
852.95282,,0.00466
853.22333,,0.00583
853.49384,,0.007
853.76434,,0.00379
854.03485,,0.00525
854.30536,,0.00466
854.57581,,0.00408
854.84631,,0.00554
855.11676,,0.00379
855.38721,,0.00525
855.65771,,0.00292
855.92816,,0.00437
856.19861,,0.00408
856.46899,,0.00408
856.73944,,0.00379
857.00989,,0.00437
857.28027,,0.00525
857.55066,,0.0035
857.82111,,0.00292
858.09149,,0.00554
858.36188,,0.00292
858.63226,,0.0035
858.90265,,0.0035
859.17297,,0.00204
859.44336,,0.00321
859.71368,,0.00321
859.98407,,0.00321
860.25439,,0.00175
860.52472,,0.00321
860.79504,,0.00496
861.06537,,0.0035
861.33569,,0.00379
861.60596,,0.0035
861.87628,,0.00379
862.14655,,0.00292
862.41681,,0.00379
862.68713,,0.00379
862.9574,,0.00408
863.22766,,0.00379
863.49786,,0.00292
863.76813,,0.00466
864.03839,,0.00175
864.30859,,0.00321
864.57886,,0.00146
864.84906,,0.00437
865.11926,,0.00379
865.38947,,0.00408
865.65967,,0.00321
865.92987,,0.0035
866.20001,,0.00233
866.47021,,0.00379
866.74036,,0.00175
867.01056,,0.00496
867.2807,,0.00437
867.55084,,0.00292
867.82098,,0.00437
868.09113,,0.00525
868.36127,,0.00321
868.63135,,0.00496
868.90149,,0.00262
869.17157,,0.00379
869.44165,,0.00321
869.71173,,0.00262
869.98181,,0.00117
870.25189,,0.00292
870.52197,,0.00408
870.79205,,0.00292
871.06207,,0.00233
871.33215,,0.00292
871.60217,,0.00233
871.87219,,0.00321
872.14221,,0.0035
872.41223,,0.00437
872.68225,,0.000875
872.95227,,0.00233
873.22223,,0.00262
873.49225,,0.00292
873.76221,,0.00321
874.03217,,0.00292
874.30219,,0.00437
874.57214,,0.00233
874.84204,,0.00146
875.112,,0.00379
875.38196,,0.0035
875.65186,,0.00262
875.92181,,0.00175
876.19171,,0.00262
876.46161,,0.0035
876.73151,,0.0035
877.0014,,0.000875
877.2713,,0.00262
877.54114,,0.00292
877.81104,,0.00175
878.08087,,0.0035
878.35077,,0.00146
878.62061,,0.000292
878.89044,,0.000583
879.16028,,0.00233
879.43011,,0.00292
879.69989,,0.00146
879.96973,,0.00321
880.2395,,0.00233
880.50934,,0.00146
880.77911,,0.00175
881.04889,,0.00146
881.31866,,0.00437
881.58844,,0.00321
881.85815,,0.00204
882.12793,,0.00204
882.39764,,0.00262
882.66742,,0.00233
882.93713,,0.00146
883.20685,,0.000875
883.47656,,0.00292
883.74628,,0.00379
884.01593,,0.00321
884.28564,,0.00146
884.5553,,0.00204
884.82501,,0.00262
885.09467,,0.000875
885.36432,,0.00379
885.63397,,0.000292
885.90363,,0.00233
886.17328,,0.00321
886.44287,,0.00262
886.71252,,0.00175
886.98212,,0.00292
887.25171,,0.000875
887.5213,,0.00233
887.79089,,0.00262
888.06049,,0.00175
888.33008,,0.00292
888.59961,,0.00233
888.8692,,-0.000875
